#FORMAT      : EMSA/MAS SPECTRAL DATA FILE
#VERSION     : 1.0
#TITLE       : MineralStandards | Vrm | Area 2 | Selected Area 1
#DATE        : 20-May-2024
#TIME        : 14:58
#OWNER       : EDAX APEX /ApexData
#NPOINTS     : 4096
#NCOLUMNS    : 1
#XUNITS      : Energy (EV)
#YUNITS      : Intensity
#DATATYPE    : XY
#XPERCHAN    : 10.000
#OFFSET      : 0.0
#CHOFFSET    : 0.0
#SIGNALTYPE  : EDS
#XLABEL      : X-RAY Energy
#YLABEL      : X-RAY Intensity
#BEAMKV   -kV: 15.0
#LIVETIME  -s: 10.0
#REALTIME  -s: 0.0
#ELEVANGLE-dg: 35.0
#AZIMANGLE-dg: 0.0
#TBEWIND  -cm: 0.000000
#TDEADLYR -cm: 0.030
#TACTYLR  -cm: 0.1
#COMMENT     : Converted by EDAX.APEX.V2.0 February 2020
##FILENAME       : \\naotvcsocc.coeit.osu.edu\CEMAS_Instrument\weber.1158\PhD\20240520\QuantResults\MineralStandards\Vrm\Area 2\Selected Area 1_1.spc
##AmpTime (usec) : 0.48
##FPGA Version   : 0
##RESO (MnKa)    : 128.8
##EDAX Detector  : Octane Elect Super
##Analyzer Type  : DPP4
##Tilt Angle     : 0.0
##TakeOff Angle  : 36.9
##Elements       : 6,7,8,9,11,12,13,14,15,16,17,19,20,22,24,25,26,27
#SPECTRUM    : Spectral Data Starts Here
0.00,        0.0
10.00,        0.0
20.00,        0.0
30.00,        0.0
40.00,        0.0
50.00,        1.0
60.00,        1.0
70.00,        2.0
80.00,        1.0
90.00,        2.0
100.00,        14.0
110.00,        40.0
120.00,        80.0
130.00,        199.0
140.00,        293.0
150.00,        478.0
160.00,        746.0
170.00,        1041.0
180.00,        1571.0
190.00,        2453.0
200.00,        4264.0
210.00,        7846.0
220.00,        14420.0
230.00,        25218.0
240.00,        39006.0
250.00,        52894.0
260.00,        61531.0
270.00,        61237.0
280.00,        51880.0
290.00,        37391.0
300.00,        23363.0
310.00,        13004.0
320.00,        6671.0
330.00,        3801.0
340.00,        2922.0
350.00,        2590.0
360.00,        2387.0
370.00,        2535.0
380.00,        2516.0
390.00,        2524.0
400.00,        2494.0
410.00,        2667.0
420.00,        2946.0
430.00,        3521.0
440.00,        4848.0
450.00,        7169.0
460.00,        11631.0
470.00,        18464.0
480.00,        28754.0
490.00,        41203.0
500.00,        53630.0
510.00,        62655.0
520.00,        64740.0
530.00,        57867.0
540.00,        45534.0
550.00,        31826.0
560.00,        19718.0
570.00,        11144.0
580.00,        6348.0
590.00,        4092.0
600.00,        3329.0
610.00,        2972.0
620.00,        2941.0
630.00,        2943.0
640.00,        2979.0
650.00,        3107.0
660.00,        3438.0
670.00,        3933.0
680.00,        4479.0
690.00,        5031.0
700.00,        5417.0
710.00,        5452.0
720.00,        5378.0
730.00,        4925.0
740.00,        4471.0
750.00,        4165.0
760.00,        3938.0
770.00,        3643.0
780.00,        3363.0
790.00,        3169.0
800.00,        2825.0
810.00,        2649.0
820.00,        2501.0
830.00,        2248.0
840.00,        2219.0
850.00,        2134.0
860.00,        2260.0
870.00,        2092.0
880.00,        2110.0
890.00,        2033.0
900.00,        2171.0
910.00,        2009.0
920.00,        2089.0
930.00,        2130.0
940.00,        2232.0
950.00,        2300.0
960.00,        2350.0
970.00,        2418.0
980.00,        2537.0
990.00,        2658.0
1000.00,        2495.0
1010.00,        2715.0
1020.00,        2564.0
1030.00,        2595.0
1040.00,        2573.0
1050.00,        2423.0
1060.00,        2264.0
1070.00,        2156.0
1080.00,        2037.0
1090.00,        1993.0
1100.00,        1885.0
1110.00,        1983.0
1120.00,        1963.0
1130.00,        1977.0
1140.00,        1994.0
1150.00,        2173.0
1160.00,        2213.0
1170.00,        2683.0
1180.00,        3314.0
1190.00,        4512.0
1200.00,        6305.0
1210.00,        8765.0
1220.00,        11778.0
1230.00,        15237.0
1240.00,        17977.0
1250.00,        19270.0
1260.00,        18942.0
1270.00,        17432.0
1280.00,        14376.0
1290.00,        11040.0
1300.00,        8061.0
1310.00,        5648.0
1320.00,        4037.0
1330.00,        3113.0
1340.00,        2626.0
1350.00,        2202.0
1360.00,        2199.0
1370.00,        2164.0
1380.00,        2089.0
1390.00,        2201.0
1400.00,        2375.0
1410.00,        2730.0
1420.00,        3285.0
1430.00,        4044.0
1440.00,        5393.0
1450.00,        6900.0
1460.00,        8601.0
1470.00,        9958.0
1480.00,        10882.0
1490.00,        11155.0
1500.00,        10671.0
1510.00,        9099.0
1520.00,        7739.0
1530.00,        6164.0
1540.00,        4763.0
1550.00,        3628.0
1560.00,        2868.0
1570.00,        2569.0
1580.00,        2290.0
1590.00,        2182.0
1600.00,        2153.0
1610.00,        2067.0
1620.00,        2096.0
1630.00,        2143.0
1640.00,        2294.0
1650.00,        2742.0
1660.00,        3589.0
1670.00,        4933.0
1680.00,        7046.0
1690.00,        9659.0
1700.00,        13771.0
1710.00,        17689.0
1720.00,        21085.0
1730.00,        23954.0
1740.00,        25169.0
1750.00,        24334.0
1760.00,        21872.0
1770.00,        18238.0
1780.00,        14362.0
1790.00,        11098.0
1800.00,        8157.0
1810.00,        5899.0
1820.00,        4587.0
1830.00,        3764.0
1840.00,        3276.0
1850.00,        2950.0
1860.00,        2640.0
1870.00,        2433.0
1880.00,        2337.0
1890.00,        2206.0
1900.00,        2110.0
1910.00,        2086.0
1920.00,        2138.0
1930.00,        2060.0
1940.00,        2115.0
1950.00,        2058.0
1960.00,        2135.0
1970.00,        2034.0
1980.00,        2149.0
1990.00,        2076.0
2000.00,        2044.0
2010.00,        2072.0
2020.00,        1846.0
2030.00,        1825.0
2040.00,        1704.0
2050.00,        1612.0
2060.00,        1590.0
2070.00,        1490.0
2080.00,        1372.0
2090.00,        1474.0
2100.00,        1448.0
2110.00,        1343.0
2120.00,        1403.0
2130.00,        1434.0
2140.00,        1386.0
2150.00,        1431.0
2160.00,        1451.0
2170.00,        1472.0
2180.00,        1446.0
2190.00,        1455.0
2200.00,        1570.0
2210.00,        1572.0
2220.00,        1611.0
2230.00,        1595.0
2240.00,        1515.0
2250.00,        1566.0
2260.00,        1554.0
2270.00,        1447.0
2280.00,        1345.0
2290.00,        1302.0
2300.00,        1206.0
2310.00,        1183.0
2320.00,        1206.0
2330.00,        1082.0
2340.00,        1142.0
2350.00,        1062.0
2360.00,        962.0
2370.00,        943.0
2380.00,        1041.0
2390.00,        1009.0
2400.00,        1029.0
2410.00,        980.0
2420.00,        1027.0
2430.00,        1017.0
2440.00,        988.0
2450.00,        1006.0
2460.00,        989.0
2470.00,        997.0
2480.00,        995.0
2490.00,        956.0
2500.00,        946.0
2510.00,        970.0
2520.00,        931.0
2530.00,        934.0
2540.00,        931.0
2550.00,        863.0
2560.00,        970.0
2570.00,        881.0
2580.00,        887.0
2590.00,        876.0
2600.00,        837.0
2610.00,        893.0
2620.00,        866.0
2630.00,        896.0
2640.00,        873.0
2650.00,        894.0
2660.00,        830.0
2670.00,        865.0
2680.00,        849.0
2690.00,        885.0
2700.00,        921.0
2710.00,        864.0
2720.00,        876.0
2730.00,        876.0
2740.00,        823.0
2750.00,        871.0
2760.00,        831.0
2770.00,        836.0
2780.00,        846.0
2790.00,        829.0
2800.00,        770.0
2810.00,        777.0
2820.00,        797.0
2830.00,        789.0
2840.00,        853.0
2850.00,        827.0
2860.00,        818.0
2870.00,        842.0
2880.00,        853.0
2890.00,        786.0
2900.00,        877.0
2910.00,        831.0
2920.00,        885.0
2930.00,        820.0
2940.00,        823.0
2950.00,        838.0
2960.00,        855.0
2970.00,        850.0
2980.00,        860.0
2990.00,        803.0
3000.00,        848.0
3010.00,        825.0
3020.00,        798.0
3030.00,        778.0
3040.00,        808.0
3050.00,        748.0
3060.00,        770.0
3070.00,        749.0
3080.00,        733.0
3090.00,        673.0
3100.00,        720.0
3110.00,        696.0
3120.00,        752.0
3130.00,        773.0
3140.00,        716.0
3150.00,        729.0
3160.00,        716.0
3170.00,        784.0
3180.00,        800.0
3190.00,        776.0
3200.00,        812.0
3210.00,        873.0
3220.00,        971.0
3230.00,        1107.0
3240.00,        1245.0
3250.00,        1448.0
3260.00,        1696.0
3270.00,        2019.0
3280.00,        2351.0
3290.00,        2817.0
3300.00,        2916.0
3310.00,        3151.0
3320.00,        3230.0
3330.00,        3247.0
3340.00,        2921.0
3350.00,        2702.0
3360.00,        2373.0
3370.00,        1958.0
3380.00,        1669.0
3390.00,        1371.0
3400.00,        1221.0
3410.00,        1010.0
3420.00,        946.0
3430.00,        881.0
3440.00,        808.0
3450.00,        790.0
3460.00,        741.0
3470.00,        781.0
3480.00,        729.0
3490.00,        782.0
3500.00,        745.0
3510.00,        731.0
3520.00,        803.0
3530.00,        824.0
3540.00,        792.0
3550.00,        811.0
3560.00,        865.0
3570.00,        940.0
3580.00,        886.0
3590.00,        901.0
3600.00,        945.0
3610.00,        898.0
3620.00,        831.0
3630.00,        862.0
3640.00,        827.0
3650.00,        788.0
3660.00,        749.0
3670.00,        697.0
3680.00,        671.0
3690.00,        669.0
3700.00,        673.0
3710.00,        618.0
3720.00,        672.0
3730.00,        637.0
3740.00,        612.0
3750.00,        566.0
3760.00,        566.0
3770.00,        634.0
3780.00,        575.0
3790.00,        576.0
3800.00,        612.0
3810.00,        587.0
3820.00,        588.0
3830.00,        528.0
3840.00,        576.0
3850.00,        547.0
3860.00,        550.0
3870.00,        540.0
3880.00,        538.0
3890.00,        508.0
3900.00,        488.0
3910.00,        509.0
3920.00,        546.0
3930.00,        516.0
3940.00,        488.0
3950.00,        458.0
3960.00,        509.0
3970.00,        497.0
3980.00,        474.0
3990.00,        494.0
4000.00,        472.0
4010.00,        528.0
4020.00,        446.0
4030.00,        506.0
4040.00,        505.0
4050.00,        466.0
4060.00,        460.0
4070.00,        438.0
4080.00,        490.0
4090.00,        467.0
4100.00,        459.0
4110.00,        485.0
4120.00,        427.0
4130.00,        466.0
4140.00,        481.0
4150.00,        438.0
4160.00,        480.0
4170.00,        423.0
4180.00,        438.0
4190.00,        499.0
4200.00,        472.0
4210.00,        416.0
4220.00,        430.0
4230.00,        435.0
4240.00,        419.0
4250.00,        467.0
4260.00,        432.0
4270.00,        451.0
4280.00,        412.0
4290.00,        420.0
4300.00,        454.0
4310.00,        444.0
4320.00,        438.0
4330.00,        424.0
4340.00,        423.0
4350.00,        454.0
4360.00,        386.0
4370.00,        426.0
4380.00,        434.0
4390.00,        456.0
4400.00,        441.0
4410.00,        478.0
4420.00,        462.0
4430.00,        522.0
4440.00,        571.0
4450.00,        553.0
4460.00,        584.0
4470.00,        591.0
4480.00,        641.0
4490.00,        688.0
4500.00,        688.0
4510.00,        672.0
4520.00,        656.0
4530.00,        624.0
4540.00,        609.0
4550.00,        598.0
4560.00,        572.0
4570.00,        525.0
4580.00,        512.0
4590.00,        489.0
4600.00,        458.0
4610.00,        428.0
4620.00,        415.0
4630.00,        417.0
4640.00,        400.0
4650.00,        384.0
4660.00,        390.0
4670.00,        391.0
4680.00,        420.0
4690.00,        393.0
4700.00,        411.0
4710.00,        407.0
4720.00,        405.0
4730.00,        404.0
4740.00,        426.0
4750.00,        389.0
4760.00,        392.0
4770.00,        391.0
4780.00,        437.0
4790.00,        369.0
4800.00,        409.0
4810.00,        400.0
4820.00,        408.0
4830.00,        372.0
4840.00,        390.0
4850.00,        424.0
4860.00,        366.0
4870.00,        406.0
4880.00,        394.0
4890.00,        408.0
4900.00,        443.0
4910.00,        392.0
4920.00,        415.0
4930.00,        410.0
4940.00,        367.0
4950.00,        406.0
4960.00,        410.0
4970.00,        389.0
4980.00,        373.0
4990.00,        360.0
5000.00,        391.0
5010.00,        396.0
5020.00,        398.0
5030.00,        384.0
5040.00,        361.0
5050.00,        371.0
5060.00,        355.0
5070.00,        354.0
5080.00,        372.0
5090.00,        333.0
5100.00,        332.0
5110.00,        329.0
5120.00,        347.0
5130.00,        307.0
5140.00,        318.0
5150.00,        333.0
5160.00,        337.0
5170.00,        354.0
5180.00,        366.0
5190.00,        327.0
5200.00,        336.0
5210.00,        314.0
5220.00,        320.0
5230.00,        338.0
5240.00,        307.0
5250.00,        332.0
5260.00,        316.0
5270.00,        322.0
5280.00,        323.0
5290.00,        325.0
5300.00,        294.0
5310.00,        326.0
5320.00,        320.0
5330.00,        303.0
5340.00,        312.0
5350.00,        353.0
5360.00,        335.0
5370.00,        344.0
5380.00,        337.0
5390.00,        345.0
5400.00,        340.0
5410.00,        345.0
5420.00,        366.0
5430.00,        351.0
5440.00,        341.0
5450.00,        320.0
5460.00,        338.0
5470.00,        329.0
5480.00,        330.0
5490.00,        315.0
5500.00,        283.0
5510.00,        303.0
5520.00,        295.0
5530.00,        284.0
5540.00,        328.0
5550.00,        317.0
5560.00,        306.0
5570.00,        289.0
5580.00,        271.0
5590.00,        270.0
5600.00,        282.0
5610.00,        302.0
5620.00,        291.0
5630.00,        290.0
5640.00,        280.0
5650.00,        290.0
5660.00,        269.0
5670.00,        287.0
5680.00,        297.0
5690.00,        241.0
5700.00,        304.0
5710.00,        274.0
5720.00,        259.0
5730.00,        285.0
5740.00,        302.0
5750.00,        269.0
5760.00,        264.0
5770.00,        292.0
5780.00,        258.0
5790.00,        271.0
5800.00,        294.0
5810.00,        272.0
5820.00,        270.0
5830.00,        273.0
5840.00,        282.0
5850.00,        279.0
5860.00,        297.0
5870.00,        292.0
5880.00,        288.0
5890.00,        289.0
5900.00,        259.0
5910.00,        266.0
5920.00,        256.0
5930.00,        291.0
5940.00,        299.0
5950.00,        266.0
5960.00,        273.0
5970.00,        236.0
5980.00,        260.0
5990.00,        258.0
6000.00,        253.0
6010.00,        258.0
6020.00,        280.0
6030.00,        231.0
6040.00,        247.0
6050.00,        304.0
6060.00,        245.0
6070.00,        238.0
6080.00,        222.0
6090.00,        253.0
6100.00,        246.0
6110.00,        224.0
6120.00,        237.0
6130.00,        248.0
6140.00,        278.0
6150.00,        255.0
6160.00,        242.0
6170.00,        260.0
6180.00,        232.0
6190.00,        251.0
6200.00,        272.0
6210.00,        245.0
6220.00,        248.0
6230.00,        245.0
6240.00,        276.0
6250.00,        291.0
6260.00,        274.0
6270.00,        313.0
6280.00,        375.0
6290.00,        399.0
6300.00,        485.0
6310.00,        538.0
6320.00,        610.0
6330.00,        747.0
6340.00,        846.0
6350.00,        1023.0
6360.00,        1137.0
6370.00,        1244.0
6380.00,        1346.0
6390.00,        1424.0
6400.00,        1470.0
6410.00,        1492.0
6420.00,        1422.0
6430.00,        1360.0
6440.00,        1228.0
6450.00,        1175.0
6460.00,        1028.0
6470.00,        888.0
6480.00,        805.0
6490.00,        662.0
6500.00,        578.0
6510.00,        514.0
6520.00,        453.0
6530.00,        390.0
6540.00,        371.0
6550.00,        315.0
6560.00,        341.0
6570.00,        297.0
6580.00,        314.0
6590.00,        276.0
6600.00,        276.0
6610.00,        307.0
6620.00,        302.0
6630.00,        322.0
6640.00,        279.0
6650.00,        286.0
6660.00,        292.0
6670.00,        269.0
6680.00,        286.0
6690.00,        241.0
6700.00,        258.0
6710.00,        272.0
6720.00,        267.0
6730.00,        270.0
6740.00,        253.0
6750.00,        236.0
6760.00,        252.0
6770.00,        261.0
6780.00,        230.0
6790.00,        255.0
6800.00,        238.0
6810.00,        244.0
6820.00,        233.0
6830.00,        227.0
6840.00,        240.0
6850.00,        228.0
6860.00,        258.0
6870.00,        264.0
6880.00,        257.0
6890.00,        270.0
6900.00,        236.0
6910.00,        257.0
6920.00,        251.0
6930.00,        275.0
6940.00,        271.0
6950.00,        261.0
6960.00,        264.0
6970.00,        272.0
6980.00,        284.0
6990.00,        324.0
7000.00,        316.0
7010.00,        330.0
7020.00,        333.0
7030.00,        353.0
7040.00,        344.0
7050.00,        354.0
7060.00,        378.0
7070.00,        401.0
7080.00,        353.0
7090.00,        367.0
7100.00,        332.0
7110.00,        327.0
7120.00,        318.0
7130.00,        269.0
7140.00,        247.0
7150.00,        267.0
7160.00,        247.0
7170.00,        237.0
7180.00,        238.0
7190.00,        226.0
7200.00,        215.0
7210.00,        190.0
7220.00,        203.0
7230.00,        220.0
7240.00,        198.0
7250.00,        199.0
7260.00,        187.0
7270.00,        195.0
7280.00,        205.0
7290.00,        191.0
7300.00,        205.0
7310.00,        182.0
7320.00,        178.0
7330.00,        191.0
7340.00,        200.0
7350.00,        184.0
7360.00,        202.0
7370.00,        197.0
7380.00,        194.0
7390.00,        184.0
7400.00,        177.0
7410.00,        186.0
7420.00,        205.0
7430.00,        178.0
7440.00,        175.0
7450.00,        196.0
7460.00,        183.0
7470.00,        181.0
7480.00,        214.0
7490.00,        196.0
7500.00,        198.0
7510.00,        169.0
7520.00,        199.0
7530.00,        188.0
7540.00,        194.0
7550.00,        191.0
7560.00,        187.0
7570.00,        192.0
7580.00,        208.0
7590.00,        191.0
7600.00,        182.0
7610.00,        196.0
7620.00,        187.0
7630.00,        167.0
7640.00,        186.0
7650.00,        168.0
7660.00,        174.0
7670.00,        169.0
7680.00,        208.0
7690.00,        180.0
7700.00,        163.0
7710.00,        182.0
7720.00,        149.0
7730.00,        165.0
7740.00,        158.0
7750.00,        156.0
7760.00,        189.0
7770.00,        168.0
7780.00,        175.0
7790.00,        182.0
7800.00,        166.0
7810.00,        161.0
7820.00,        162.0
7830.00,        165.0
7840.00,        186.0
7850.00,        158.0
7860.00,        146.0
7870.00,        190.0
7880.00,        180.0
7890.00,        152.0
7900.00,        182.0
7910.00,        160.0
7920.00,        182.0
7930.00,        175.0
7940.00,        148.0
7950.00,        179.0
7960.00,        169.0
7970.00,        179.0
7980.00,        187.0
7990.00,        180.0
8000.00,        164.0
8010.00,        180.0
8020.00,        191.0
8030.00,        177.0
8040.00,        200.0
8050.00,        180.0
8060.00,        187.0
8070.00,        184.0
8080.00,        190.0
8090.00,        171.0
8100.00,        166.0
8110.00,        165.0
8120.00,        162.0
8130.00,        156.0
8140.00,        154.0
8150.00,        193.0
8160.00,        170.0
8170.00,        153.0
8180.00,        147.0
8190.00,        162.0
8200.00,        171.0
8210.00,        161.0
8220.00,        131.0
8230.00,        134.0
8240.00,        134.0
8250.00,        138.0
8260.00,        166.0
8270.00,        123.0
8280.00,        162.0
8290.00,        148.0
8300.00,        151.0
8310.00,        137.0
8320.00,        121.0
8330.00,        144.0
8340.00,        155.0
8350.00,        134.0
8360.00,        127.0
8370.00,        157.0
8380.00,        147.0
8390.00,        152.0
8400.00,        138.0
8410.00,        134.0
8420.00,        146.0
8430.00,        134.0
8440.00,        128.0
8450.00,        144.0
8460.00,        134.0
8470.00,        128.0
8480.00,        147.0
8490.00,        136.0
8500.00,        123.0
8510.00,        145.0
8520.00,        126.0
8530.00,        107.0
8540.00,        111.0
8550.00,        155.0
8560.00,        133.0
8570.00,        144.0
8580.00,        115.0
8590.00,        150.0
8600.00,        145.0
8610.00,        121.0
8620.00,        140.0
8630.00,        142.0
8640.00,        158.0
8650.00,        136.0
8660.00,        109.0
8670.00,        132.0
8680.00,        137.0
8690.00,        115.0
8700.00,        123.0
8710.00,        112.0
8720.00,        125.0
8730.00,        144.0
8740.00,        124.0
8750.00,        145.0
8760.00,        130.0
8770.00,        161.0
8780.00,        109.0
8790.00,        114.0
8800.00,        122.0
8810.00,        130.0
8820.00,        139.0
8830.00,        115.0
8840.00,        137.0
8850.00,        126.0
8860.00,        120.0
8870.00,        145.0
8880.00,        136.0
8890.00,        109.0
8900.00,        128.0
8910.00,        121.0
8920.00,        99.0
8930.00,        128.0
8940.00,        113.0
8950.00,        107.0
8960.00,        117.0
8970.00,        114.0
8980.00,        104.0
8990.00,        135.0
9000.00,        121.0
9010.00,        100.0
9020.00,        127.0
9030.00,        106.0
9040.00,        127.0
9050.00,        105.0
9060.00,        99.0
9070.00,        142.0
9080.00,        121.0
9090.00,        122.0
9100.00,        110.0
9110.00,        113.0
9120.00,        108.0
9130.00,        98.0
9140.00,        77.0
9150.00,        136.0
9160.00,        111.0
9170.00,        92.0
9180.00,        120.0
9190.00,        93.0
9200.00,        124.0
9210.00,        94.0
9220.00,        117.0
9230.00,        104.0
9240.00,        109.0
9250.00,        104.0
9260.00,        112.0
9270.00,        98.0
9280.00,        97.0
9290.00,        109.0
9300.00,        116.0
9310.00,        115.0
9320.00,        110.0
9330.00,        117.0
9340.00,        111.0
9350.00,        100.0
9360.00,        99.0
9370.00,        114.0
9380.00,        112.0
9390.00,        97.0
9400.00,        104.0
9410.00,        82.0
9420.00,        114.0
9430.00,        92.0
9440.00,        86.0
9450.00,        92.0
9460.00,        117.0
9470.00,        86.0
9480.00,        106.0
9490.00,        96.0
9500.00,        103.0
9510.00,        83.0
9520.00,        125.0
9530.00,        104.0
9540.00,        107.0
9550.00,        101.0
9560.00,        95.0
9570.00,        98.0
9580.00,        100.0
9590.00,        107.0
9600.00,        99.0
9610.00,        106.0
9620.00,        108.0
9630.00,        89.0
9640.00,        92.0
9650.00,        95.0
9660.00,        92.0
9670.00,        98.0
9680.00,        87.0
9690.00,        92.0
9700.00,        100.0
9710.00,        116.0
9720.00,        103.0
9730.00,        101.0
9740.00,        98.0
9750.00,        107.0
9760.00,        115.0
9770.00,        97.0
9780.00,        97.0
9790.00,        100.0
9800.00,        108.0
9810.00,        81.0
9820.00,        105.0
9830.00,        91.0
9840.00,        92.0
9850.00,        117.0
9860.00,        92.0
9870.00,        93.0
9880.00,        95.0
9890.00,        100.0
9900.00,        108.0
9910.00,        99.0
9920.00,        95.0
9930.00,        98.0
9940.00,        103.0
9950.00,        105.0
9960.00,        88.0
9970.00,        93.0
9980.00,        90.0
9990.00,        105.0
10000.00,        106.0
10010.00,        97.0
10020.00,        85.0
10030.00,        99.0
10040.00,        87.0
10050.00,        104.0
10060.00,        88.0
10070.00,        94.0
10080.00,        84.0
10090.00,        73.0
10100.00,        69.0
10110.00,        90.0
10120.00,        84.0
10130.00,        94.0
10140.00,        74.0
10150.00,        84.0
10160.00,        82.0
10170.00,        83.0
10180.00,        79.0
10190.00,        80.0
10200.00,        73.0
10210.00,        86.0
10220.00,        90.0
10230.00,        84.0
10240.00,        82.0
10250.00,        104.0
10260.00,        94.0
10270.00,        85.0
10280.00,        89.0
10290.00,        87.0
10300.00,        87.0
10310.00,        70.0
10320.00,        78.0
10330.00,        82.0
10340.00,        65.0
10350.00,        89.0
10360.00,        97.0
10370.00,        94.0
10380.00,        88.0
10390.00,        79.0
10400.00,        101.0
10410.00,        69.0
10420.00,        77.0
10430.00,        85.0
10440.00,        93.0
10450.00,        84.0
10460.00,        79.0
10470.00,        79.0
10480.00,        94.0
10490.00,        79.0
10500.00,        73.0
10510.00,        94.0
10520.00,        91.0
10530.00,        76.0
10540.00,        72.0
10550.00,        74.0
10560.00,        72.0
10570.00,        78.0
10580.00,        73.0
10590.00,        74.0
10600.00,        78.0
10610.00,        73.0
10620.00,        83.0
10630.00,        69.0
10640.00,        81.0
10650.00,        75.0
10660.00,        85.0
10670.00,        77.0
10680.00,        67.0
10690.00,        75.0
10700.00,        71.0
10710.00,        72.0
10720.00,        80.0
10730.00,        81.0
10740.00,        60.0
10750.00,        71.0
10760.00,        84.0
10770.00,        62.0
10780.00,        78.0
10790.00,        65.0
10800.00,        70.0
10810.00,        64.0
10820.00,        70.0
10830.00,        62.0
10840.00,        68.0
10850.00,        75.0
10860.00,        83.0
10870.00,        66.0
10880.00,        76.0
10890.00,        73.0
10900.00,        69.0
10910.00,        79.0
10920.00,        57.0
10930.00,        79.0
10940.00,        78.0
10950.00,        69.0
10960.00,        82.0
10970.00,        74.0
10980.00,        58.0
10990.00,        73.0
11000.00,        77.0
11010.00,        71.0
11020.00,        66.0
11030.00,        52.0
11040.00,        55.0
11050.00,        61.0
11060.00,        68.0
11070.00,        71.0
11080.00,        79.0
11090.00,        74.0
11100.00,        70.0
11110.00,        59.0
11120.00,        63.0
11130.00,        68.0
11140.00,        72.0
11150.00,        69.0
11160.00,        61.0
11170.00,        55.0
11180.00,        77.0
11190.00,        58.0
11200.00,        66.0
11210.00,        64.0
11220.00,        58.0
11230.00,        66.0
11240.00,        50.0
11250.00,        75.0
11260.00,        76.0
11270.00,        71.0
11280.00,        50.0
11290.00,        64.0
11300.00,        60.0
11310.00,        63.0
11320.00,        58.0
11330.00,        56.0
11340.00,        47.0
11350.00,        58.0
11360.00,        61.0
11370.00,        67.0
11380.00,        46.0
11390.00,        55.0
11400.00,        38.0
11410.00,        58.0
11420.00,        58.0
11430.00,        60.0
11440.00,        57.0
11450.00,        66.0
11460.00,        50.0
11470.00,        61.0
11480.00,        40.0
11490.00,        42.0
11500.00,        46.0
11510.00,        50.0
11520.00,        52.0
11530.00,        47.0
11540.00,        64.0
11550.00,        59.0
11560.00,        56.0
11570.00,        53.0
11580.00,        34.0
11590.00,        50.0
11600.00,        57.0
11610.00,        49.0
11620.00,        43.0
11630.00,        50.0
11640.00,        51.0
11650.00,        51.0
11660.00,        48.0
11670.00,        49.0
11680.00,        62.0
11690.00,        45.0
11700.00,        56.0
11710.00,        43.0
11720.00,        60.0
11730.00,        56.0
11740.00,        56.0
11750.00,        51.0
11760.00,        50.0
11770.00,        62.0
11780.00,        41.0
11790.00,        42.0
11800.00,        68.0
11810.00,        46.0
11820.00,        45.0
11830.00,        60.0
11840.00,        53.0
11850.00,        48.0
11860.00,        60.0
11870.00,        55.0
11880.00,        49.0
11890.00,        49.0
11900.00,        55.0
11910.00,        41.0
11920.00,        50.0
11930.00,        54.0
11940.00,        40.0
11950.00,        52.0
11960.00,        57.0
11970.00,        56.0
11980.00,        41.0
11990.00,        50.0
12000.00,        50.0
12010.00,        42.0
12020.00,        45.0
12030.00,        40.0
12040.00,        55.0
12050.00,        39.0
12060.00,        45.0
12070.00,        55.0
12080.00,        48.0
12090.00,        46.0
12100.00,        44.0
12110.00,        55.0
12120.00,        39.0
12130.00,        43.0
12140.00,        55.0
12150.00,        50.0
12160.00,        40.0
12170.00,        47.0
12180.00,        39.0
12190.00,        52.0
12200.00,        49.0
12210.00,        51.0
12220.00,        50.0
12230.00,        37.0
12240.00,        59.0
12250.00,        46.0
12260.00,        39.0
12270.00,        36.0
12280.00,        42.0
12290.00,        44.0
12300.00,        39.0
12310.00,        57.0
12320.00,        47.0
12330.00,        45.0
12340.00,        25.0
12350.00,        36.0
12360.00,        38.0
12370.00,        46.0
12380.00,        45.0
12390.00,        46.0
12400.00,        50.0
12410.00,        36.0
12420.00,        41.0
12430.00,        40.0
12440.00,        49.0
12450.00,        32.0
12460.00,        45.0
12470.00,        38.0
12480.00,        30.0
12490.00,        33.0
12500.00,        32.0
12510.00,        37.0
12520.00,        34.0
12530.00,        45.0
12540.00,        32.0
12550.00,        38.0
12560.00,        40.0
12570.00,        40.0
12580.00,        37.0
12590.00,        35.0
12600.00,        41.0
12610.00,        42.0
12620.00,        35.0
12630.00,        40.0
12640.00,        36.0
12650.00,        38.0
12660.00,        43.0
12670.00,        34.0
12680.00,        41.0
12690.00,        34.0
12700.00,        43.0
12710.00,        35.0
12720.00,        31.0
12730.00,        33.0
12740.00,        43.0
12750.00,        28.0
12760.00,        48.0
12770.00,        38.0
12780.00,        36.0
12790.00,        31.0
12800.00,        26.0
12810.00,        35.0
12820.00,        31.0
12830.00,        30.0
12840.00,        32.0
12850.00,        29.0
12860.00,        31.0
12870.00,        36.0
12880.00,        36.0
12890.00,        36.0
12900.00,        23.0
12910.00,        22.0
12920.00,        27.0
12930.00,        28.0
12940.00,        24.0
12950.00,        44.0
12960.00,        35.0
12970.00,        26.0
12980.00,        27.0
12990.00,        27.0
13000.00,        36.0
13010.00,        18.0
13020.00,        25.0
13030.00,        31.0
13040.00,        25.0
13050.00,        25.0
13060.00,        38.0
13070.00,        42.0
13080.00,        30.0
13090.00,        33.0
13100.00,        31.0
13110.00,        27.0
13120.00,        38.0
13130.00,        28.0
13140.00,        31.0
13150.00,        32.0
13160.00,        33.0
13170.00,        27.0
13180.00,        25.0
13190.00,        26.0
13200.00,        23.0
13210.00,        25.0
13220.00,        28.0
13230.00,        32.0
13240.00,        34.0
13250.00,        27.0
13260.00,        31.0
13270.00,        30.0
13280.00,        25.0
13290.00,        26.0
13300.00,        27.0
13310.00,        22.0
13320.00,        36.0
13330.00,        20.0
13340.00,        34.0
13350.00,        20.0
13360.00,        39.0
13370.00,        28.0
13380.00,        26.0
13390.00,        23.0
13400.00,        25.0
13410.00,        29.0
13420.00,        28.0
13430.00,        27.0
13440.00,        28.0
13450.00,        19.0
13460.00,        28.0
13470.00,        22.0
13480.00,        20.0
13490.00,        27.0
13500.00,        25.0
13510.00,        26.0
13520.00,        24.0
13530.00,        18.0
13540.00,        15.0
13550.00,        16.0
13560.00,        24.0
13570.00,        26.0
13580.00,        12.0
13590.00,        23.0
13600.00,        27.0
13610.00,        15.0
13620.00,        18.0
13630.00,        22.0
13640.00,        21.0
13650.00,        14.0
13660.00,        17.0
13670.00,        27.0
13680.00,        21.0
13690.00,        18.0
13700.00,        23.0
13710.00,        17.0
13720.00,        21.0
13730.00,        24.0
13740.00,        20.0
13750.00,        12.0
13760.00,        12.0
13770.00,        12.0
13780.00,        22.0
13790.00,        23.0
13800.00,        20.0
13810.00,        16.0
13820.00,        23.0
13830.00,        23.0
13840.00,        23.0
13850.00,        17.0
13860.00,        15.0
13870.00,        20.0
13880.00,        13.0
13890.00,        18.0
13900.00,        17.0
13910.00,        19.0
13920.00,        17.0
13930.00,        17.0
13940.00,        18.0
13950.00,        14.0
13960.00,        13.0
13970.00,        17.0
13980.00,        13.0
13990.00,        18.0
14000.00,        15.0
14010.00,        14.0
14020.00,        15.0
14030.00,        13.0
14040.00,        15.0
14050.00,        11.0
14060.00,        12.0
14070.00,        12.0
14080.00,        14.0
14090.00,        19.0
14100.00,        13.0
14110.00,        13.0
14120.00,        20.0
14130.00,        13.0
14140.00,        14.0
14150.00,        13.0
14160.00,        16.0
14170.00,        17.0
14180.00,        13.0
14190.00,        14.0
14200.00,        12.0
14210.00,        12.0
14220.00,        16.0
14230.00,        14.0
14240.00,        16.0
14250.00,        18.0
14260.00,        10.0
14270.00,        11.0
14280.00,        14.0
14290.00,        13.0
14300.00,        13.0
14310.00,        9.0
14320.00,        6.0
14330.00,        12.0
14340.00,        12.0
14350.00,        10.0
14360.00,        6.0
14370.00,        13.0
14380.00,        15.0
14390.00,        1.0
14400.00,        13.0
14410.00,        12.0
14420.00,        15.0
14430.00,        6.0
14440.00,        9.0
14450.00,        9.0
14460.00,        7.0
14470.00,        14.0
14480.00,        10.0
14490.00,        13.0
14500.00,        7.0
14510.00,        10.0
14520.00,        11.0
14530.00,        5.0
14540.00,        11.0
14550.00,        13.0
14560.00,        12.0
14570.00,        5.0
14580.00,        8.0
14590.00,        11.0
14600.00,        8.0
14610.00,        5.0
14620.00,        6.0
14630.00,        5.0
14640.00,        1.0
14650.00,        6.0
14660.00,        1.0
14670.00,        5.0
14680.00,        9.0
14690.00,        7.0
14700.00,        5.0
14710.00,        4.0
14720.00,        7.0
14730.00,        6.0
14740.00,        5.0
14750.00,        7.0
14760.00,        7.0
14770.00,        6.0
14780.00,        7.0
14790.00,        2.0
14800.00,        6.0
14810.00,        4.0
14820.00,        2.0
14830.00,        4.0
14840.00,        3.0
14850.00,        5.0
14860.00,        4.0
14870.00,        3.0
14880.00,        5.0
14890.00,        2.0
14900.00,        6.0
14910.00,        2.0
14920.00,        5.0
14930.00,        5.0
14940.00,        3.0
14950.00,        6.0
14960.00,        3.0
14970.00,        5.0
14980.00,        4.0
14990.00,        2.0
15000.00,        5.0
15010.00,        1.0
15020.00,        3.0
15030.00,        2.0
15040.00,        4.0
15050.00,        3.0
15060.00,        3.0
15070.00,        1.0
15080.00,        2.0
15090.00,        2.0
15100.00,        1.0
15110.00,        1.0
15120.00,        3.0
15130.00,        3.0
15140.00,        3.0
15150.00,        7.0
15160.00,        2.0
15170.00,        2.0
15180.00,        2.0
15190.00,        3.0
15200.00,        1.0
15210.00,        1.0
15220.00,        3.0
15230.00,        2.0
15240.00,        1.0
15250.00,        2.0
15260.00,        1.0
15270.00,        5.0
15280.00,        0.0
15290.00,        1.0
15300.00,        2.0
15310.00,        4.0
15320.00,        5.0
15330.00,        4.0
15340.00,        1.0
15350.00,        1.0
15360.00,        0.0
15370.00,        4.0
15380.00,        0.0
15390.00,        1.0
15400.00,        2.0
15410.00,        2.0
15420.00,        1.0
15430.00,        3.0
15440.00,        1.0
15450.00,        1.0
15460.00,        2.0
15470.00,        1.0
15480.00,        1.0
15490.00,        2.0
15500.00,        1.0
15510.00,        1.0
15520.00,        1.0
15530.00,        3.0
15540.00,        0.0
15550.00,        3.0
15560.00,        4.0
15570.00,        4.0
15580.00,        1.0
15590.00,        2.0
15600.00,        1.0
15610.00,        2.0
15620.00,        2.0
15630.00,        2.0
15640.00,        2.0
15650.00,        0.0
15660.00,        0.0
15670.00,        0.0
15680.00,        2.0
15690.00,        1.0
15700.00,        0.0
15710.00,        2.0
15720.00,        2.0
15730.00,        2.0
15740.00,        2.0
15750.00,        3.0
15760.00,        2.0
15770.00,        1.0
15780.00,        3.0
15790.00,        0.0
15800.00,        2.0
15810.00,        1.0
15820.00,        0.0
15830.00,        3.0
15840.00,        1.0
15850.00,        2.0
15860.00,        1.0
15870.00,        3.0
15880.00,        1.0
15890.00,        2.0
15900.00,        5.0
15910.00,        2.0
15920.00,        5.0
15930.00,        1.0
15940.00,        3.0
15950.00,        0.0
15960.00,        1.0
15970.00,        1.0
15980.00,        0.0
15990.00,        1.0
16000.00,        1.0
16010.00,        0.0
16020.00,        0.0
16030.00,        1.0
16040.00,        1.0
16050.00,        0.0
16060.00,        3.0
16070.00,        0.0
16080.00,        2.0
16090.00,        2.0
16100.00,        1.0
16110.00,        3.0
16120.00,        0.0
16130.00,        0.0
16140.00,        2.0
16150.00,        1.0
16160.00,        0.0
16170.00,        1.0
16180.00,        0.0
16190.00,        0.0
16200.00,        2.0
16210.00,        0.0
16220.00,        1.0
16230.00,        1.0
16240.00,        0.0
16250.00,        1.0
16260.00,        0.0
16270.00,        0.0
16280.00,        1.0
16290.00,        0.0
16300.00,        2.0
16310.00,        4.0
16320.00,        0.0
16330.00,        2.0
16340.00,        1.0
16350.00,        4.0
16360.00,        1.0
16370.00,        1.0
16380.00,        2.0
16390.00,        1.0
16400.00,        2.0
16410.00,        0.0
16420.00,        1.0
16430.00,        0.0
16440.00,        3.0
16450.00,        1.0
16460.00,        0.0
16470.00,        1.0
16480.00,        2.0
16490.00,        0.0
16500.00,        1.0
16510.00,        0.0
16520.00,        1.0
16530.00,        3.0
16540.00,        0.0
16550.00,        0.0
16560.00,        1.0
16570.00,        0.0
16580.00,        3.0
16590.00,        0.0
16600.00,        0.0
16610.00,        0.0
16620.00,        2.0
16630.00,        2.0
16640.00,        1.0
16650.00,        1.0
16660.00,        0.0
16670.00,        1.0
16680.00,        2.0
16690.00,        0.0
16700.00,        0.0
16710.00,        0.0
16720.00,        1.0
16730.00,        1.0
16740.00,        1.0
16750.00,        0.0
16760.00,        2.0
16770.00,        1.0
16780.00,        2.0
16790.00,        1.0
16800.00,        1.0
16810.00,        1.0
16820.00,        1.0
16830.00,        3.0
16840.00,        0.0
16850.00,        0.0
16860.00,        0.0
16870.00,        0.0
16880.00,        1.0
16890.00,        1.0
16900.00,        0.0
16910.00,        1.0
16920.00,        0.0
16930.00,        1.0
16940.00,        1.0
16950.00,        1.0
16960.00,        1.0
16970.00,        0.0
16980.00,        0.0
16990.00,        0.0
17000.00,        1.0
17010.00,        1.0
17020.00,        0.0
17030.00,        1.0
17040.00,        0.0
17050.00,        0.0
17060.00,        2.0
17070.00,        0.0
17080.00,        2.0
17090.00,        1.0
17100.00,        2.0
17110.00,        0.0
17120.00,        1.0
17130.00,        0.0
17140.00,        0.0
17150.00,        1.0
17160.00,        0.0
17170.00,        0.0
17180.00,        0.0
17190.00,        1.0
17200.00,        2.0
17210.00,        0.0
17220.00,        0.0
17230.00,        1.0
17240.00,        1.0
17250.00,        0.0
17260.00,        0.0
17270.00,        1.0
17280.00,        0.0
17290.00,        0.0
17300.00,        0.0
17310.00,        1.0
17320.00,        0.0
17330.00,        2.0
17340.00,        0.0
17350.00,        0.0
17360.00,        1.0
17370.00,        0.0
17380.00,        0.0
17390.00,        1.0
17400.00,        2.0
17410.00,        0.0
17420.00,        0.0
17430.00,        0.0
17440.00,        0.0
17450.00,        1.0
17460.00,        0.0
17470.00,        2.0
17480.00,        0.0
17490.00,        0.0
17500.00,        1.0
17510.00,        0.0
17520.00,        1.0
17530.00,        1.0
17540.00,        1.0
17550.00,        0.0
17560.00,        1.0
17570.00,        1.0
17580.00,        0.0
17590.00,        0.0
17600.00,        1.0
17610.00,        0.0
17620.00,        1.0
17630.00,        0.0
17640.00,        0.0
17650.00,        0.0
17660.00,        0.0
17670.00,        0.0
17680.00,        0.0
17690.00,        0.0
17700.00,        0.0
17710.00,        1.0
17720.00,        0.0
17730.00,        0.0
17740.00,        0.0
17750.00,        0.0
17760.00,        1.0
17770.00,        0.0
17780.00,        1.0
17790.00,        0.0
17800.00,        1.0
17810.00,        0.0
17820.00,        0.0
17830.00,        0.0
17840.00,        1.0
17850.00,        0.0
17860.00,        0.0
17870.00,        0.0
17880.00,        0.0
17890.00,        1.0
17900.00,        0.0
17910.00,        0.0
17920.00,        1.0
17930.00,        0.0
17940.00,        0.0
17950.00,        0.0
17960.00,        0.0
17970.00,        0.0
17980.00,        1.0
17990.00,        2.0
18000.00,        1.0
18010.00,        0.0
18020.00,        0.0
18030.00,        2.0
18040.00,        0.0
18050.00,        0.0
18060.00,        0.0
18070.00,        0.0
18080.00,        0.0
18090.00,        0.0
18100.00,        1.0
18110.00,        0.0
18120.00,        0.0
18130.00,        0.0
18140.00,        0.0
18150.00,        0.0
18160.00,        0.0
18170.00,        1.0
18180.00,        1.0
18190.00,        0.0
18200.00,        0.0
18210.00,        0.0
18220.00,        0.0
18230.00,        0.0
18240.00,        0.0
18250.00,        0.0
18260.00,        1.0
18270.00,        0.0
18280.00,        0.0
18290.00,        1.0
18300.00,        0.0
18310.00,        1.0
18320.00,        1.0
18330.00,        0.0
18340.00,        0.0
18350.00,        0.0
18360.00,        0.0
18370.00,        0.0
18380.00,        0.0
18390.00,        0.0
18400.00,        0.0
18410.00,        0.0
18420.00,        1.0
18430.00,        0.0
18440.00,        0.0
18450.00,        0.0
18460.00,        1.0
18470.00,        0.0
18480.00,        1.0
18490.00,        0.0
18500.00,        0.0
18510.00,        0.0
18520.00,        0.0
18530.00,        0.0
18540.00,        0.0
18550.00,        0.0
18560.00,        1.0
18570.00,        0.0
18580.00,        0.0
18590.00,        0.0
18600.00,        0.0
18610.00,        0.0
18620.00,        0.0
18630.00,        0.0
18640.00,        3.0
18650.00,        0.0
18660.00,        2.0
18670.00,        1.0
18680.00,        0.0
18690.00,        1.0
18700.00,        1.0
18710.00,        0.0
18720.00,        1.0
18730.00,        1.0
18740.00,        1.0
18750.00,        1.0
18760.00,        0.0
18770.00,        0.0
18780.00,        0.0
18790.00,        0.0
18800.00,        0.0
18810.00,        1.0
18820.00,        1.0
18830.00,        0.0
18840.00,        0.0
18850.00,        0.0
18860.00,        1.0
18870.00,        0.0
18880.00,        0.0
18890.00,        0.0
18900.00,        0.0
18910.00,        0.0
18920.00,        0.0
18930.00,        1.0
18940.00,        0.0
18950.00,        1.0
18960.00,        0.0
18970.00,        1.0
18980.00,        0.0
18990.00,        0.0
19000.00,        1.0
19010.00,        0.0
19020.00,        0.0
19030.00,        0.0
19040.00,        0.0
19050.00,        0.0
19060.00,        1.0
19070.00,        1.0
19080.00,        0.0
19090.00,        0.0
19100.00,        0.0
19110.00,        0.0
19120.00,        0.0
19130.00,        0.0
19140.00,        0.0
19150.00,        0.0
19160.00,        0.0
19170.00,        1.0
19180.00,        0.0
19190.00,        0.0
19200.00,        0.0
19210.00,        0.0
19220.00,        0.0
19230.00,        0.0
19240.00,        0.0
19250.00,        0.0
19260.00,        0.0
19270.00,        0.0
19280.00,        0.0
19290.00,        0.0
19300.00,        1.0
19310.00,        0.0
19320.00,        0.0
19330.00,        1.0
19340.00,        0.0
19350.00,        0.0
19360.00,        0.0
19370.00,        0.0
19380.00,        0.0
19390.00,        0.0
19400.00,        0.0
19410.00,        0.0
19420.00,        0.0
19430.00,        0.0
19440.00,        0.0
19450.00,        0.0
19460.00,        1.0
19470.00,        0.0
19480.00,        1.0
19490.00,        1.0
19500.00,        0.0
19510.00,        0.0
19520.00,        0.0
19530.00,        0.0
19540.00,        1.0
19550.00,        0.0
19560.00,        0.0
19570.00,        0.0
19580.00,        0.0
19590.00,        0.0
19600.00,        0.0
19610.00,        0.0
19620.00,        0.0
19630.00,        0.0
19640.00,        0.0
19650.00,        0.0
19660.00,        0.0
19670.00,        0.0
19680.00,        0.0
19690.00,        0.0
19700.00,        0.0
19710.00,        0.0
19720.00,        0.0
19730.00,        0.0
19740.00,        0.0
19750.00,        0.0
19760.00,        0.0
19770.00,        0.0
19780.00,        0.0
19790.00,        0.0
19800.00,        0.0
19810.00,        0.0
19820.00,        0.0
19830.00,        0.0
19840.00,        0.0
19850.00,        0.0
19860.00,        0.0
19870.00,        0.0
19880.00,        1.0
19890.00,        0.0
19900.00,        0.0
19910.00,        0.0
19920.00,        0.0
19930.00,        0.0
19940.00,        0.0
19950.00,        0.0
19960.00,        0.0
19970.00,        0.0
19980.00,        0.0
19990.00,        0.0
20000.00,        0.0
20010.00,        0.0
20020.00,        2.0
20030.00,        0.0
20040.00,        0.0
20050.00,        0.0
20060.00,        0.0
20070.00,        1.0
20080.00,        0.0
20090.00,        0.0
20100.00,        0.0
20110.00,        0.0
20120.00,        0.0
20130.00,        0.0
20140.00,        0.0
20150.00,        0.0
20160.00,        0.0
20170.00,        0.0
20180.00,        0.0
20190.00,        0.0
20200.00,        0.0
20210.00,        0.0
20220.00,        0.0
20230.00,        0.0
20240.00,        0.0
20250.00,        0.0
20260.00,        0.0
20270.00,        0.0
20280.00,        0.0
20290.00,        1.0
20300.00,        0.0
20310.00,        0.0
20320.00,        0.0
20330.00,        0.0
20340.00,        0.0
20350.00,        0.0
20360.00,        0.0
20370.00,        1.0
20380.00,        0.0
20390.00,        1.0
20400.00,        0.0
20410.00,        0.0
20420.00,        0.0
20430.00,        0.0
20440.00,        0.0
20450.00,        0.0
20460.00,        0.0
20470.00,        0.0
20480.00,        0.0
20490.00,        0.0
20500.00,        0.0
20510.00,        0.0
20520.00,        0.0
20530.00,        0.0
20540.00,        0.0
20550.00,        0.0
20560.00,        0.0
20570.00,        0.0
20580.00,        0.0
20590.00,        0.0
20600.00,        0.0
20610.00,        0.0
20620.00,        0.0
20630.00,        0.0
20640.00,        0.0
20650.00,        0.0
20660.00,        0.0
20670.00,        0.0
20680.00,        0.0
20690.00,        0.0
20700.00,        0.0
20710.00,        0.0
20720.00,        0.0
20730.00,        0.0
20740.00,        0.0
20750.00,        0.0
20760.00,        0.0
20770.00,        0.0
20780.00,        0.0
20790.00,        0.0
20800.00,        0.0
20810.00,        0.0
20820.00,        0.0
20830.00,        0.0
20840.00,        0.0
20850.00,        0.0
20860.00,        0.0
20870.00,        0.0
20880.00,        0.0
20890.00,        0.0
20900.00,        0.0
20910.00,        0.0
20920.00,        0.0
20930.00,        0.0
20940.00,        0.0
20950.00,        1.0
20960.00,        0.0
20970.00,        0.0
20980.00,        0.0
20990.00,        0.0
21000.00,        0.0
21010.00,        0.0
21020.00,        0.0
21030.00,        0.0
21040.00,        1.0
21050.00,        0.0
21060.00,        0.0
21070.00,        0.0
21080.00,        0.0
21090.00,        0.0
21100.00,        0.0
21110.00,        0.0
21120.00,        0.0
21130.00,        0.0
21140.00,        0.0
21150.00,        0.0
21160.00,        0.0
21170.00,        0.0
21180.00,        0.0
21190.00,        0.0
21200.00,        0.0
21210.00,        0.0
21220.00,        0.0
21230.00,        0.0
21240.00,        0.0
21250.00,        0.0
21260.00,        0.0
21270.00,        0.0
21280.00,        0.0
21290.00,        0.0
21300.00,        0.0
21310.00,        0.0
21320.00,        0.0
21330.00,        0.0
21340.00,        0.0
21350.00,        0.0
21360.00,        0.0
21370.00,        0.0
21380.00,        0.0
21390.00,        0.0
21400.00,        0.0
21410.00,        0.0
21420.00,        0.0
21430.00,        0.0
21440.00,        0.0
21450.00,        0.0
21460.00,        0.0
21470.00,        0.0
21480.00,        0.0
21490.00,        0.0
21500.00,        0.0
21510.00,        0.0
21520.00,        0.0
21530.00,        0.0
21540.00,        0.0
21550.00,        0.0
21560.00,        0.0
21570.00,        1.0
21580.00,        0.0
21590.00,        0.0
21600.00,        0.0
21610.00,        1.0
21620.00,        0.0
21630.00,        0.0
21640.00,        0.0
21650.00,        0.0
21660.00,        0.0
21670.00,        0.0
21680.00,        0.0
21690.00,        0.0
21700.00,        0.0
21710.00,        0.0
21720.00,        0.0
21730.00,        0.0
21740.00,        0.0
21750.00,        0.0
21760.00,        0.0
21770.00,        0.0
21780.00,        0.0
21790.00,        0.0
21800.00,        0.0
21810.00,        1.0
21820.00,        0.0
21830.00,        1.0
21840.00,        0.0
21850.00,        0.0
21860.00,        0.0
21870.00,        0.0
21880.00,        0.0
21890.00,        0.0
21900.00,        0.0
21910.00,        0.0
21920.00,        0.0
21930.00,        0.0
21940.00,        0.0
21950.00,        0.0
21960.00,        0.0
21970.00,        0.0
21980.00,        0.0
21990.00,        0.0
22000.00,        0.0
22010.00,        0.0
22020.00,        0.0
22030.00,        0.0
22040.00,        0.0
22050.00,        0.0
22060.00,        0.0
22070.00,        0.0
22080.00,        0.0
22090.00,        0.0
22100.00,        0.0
22110.00,        0.0
22120.00,        0.0
22130.00,        0.0
22140.00,        0.0
22150.00,        0.0
22160.00,        0.0
22170.00,        0.0
22180.00,        0.0
22190.00,        1.0
22200.00,        0.0
22210.00,        0.0
22220.00,        0.0
22230.00,        0.0
22240.00,        0.0
22250.00,        0.0
22260.00,        1.0
22270.00,        0.0
22280.00,        0.0
22290.00,        0.0
22300.00,        0.0
22310.00,        0.0
22320.00,        1.0
22330.00,        0.0
22340.00,        0.0
22350.00,        0.0
22360.00,        0.0
22370.00,        0.0
22380.00,        0.0
22390.00,        0.0
22400.00,        0.0
22410.00,        0.0
22420.00,        0.0
22430.00,        0.0
22440.00,        0.0
22450.00,        0.0
22460.00,        1.0
22470.00,        0.0
22480.00,        0.0
22490.00,        0.0
22500.00,        0.0
22510.00,        0.0
22520.00,        0.0
22530.00,        0.0
22540.00,        0.0
22550.00,        0.0
22560.00,        0.0
22570.00,        0.0
22580.00,        0.0
22590.00,        0.0
22600.00,        0.0
22610.00,        0.0
22620.00,        0.0
22630.00,        0.0
22640.00,        0.0
22650.00,        0.0
22660.00,        0.0
22670.00,        0.0
22680.00,        0.0
22690.00,        0.0
22700.00,        0.0
22710.00,        0.0
22720.00,        0.0
22730.00,        0.0
22740.00,        0.0
22750.00,        0.0
22760.00,        0.0
22770.00,        0.0
22780.00,        1.0
22790.00,        0.0
22800.00,        0.0
22810.00,        0.0
22820.00,        0.0
22830.00,        0.0
22840.00,        0.0
22850.00,        0.0
22860.00,        0.0
22870.00,        0.0
22880.00,        0.0
22890.00,        0.0
22900.00,        0.0
22910.00,        0.0
22920.00,        0.0
22930.00,        0.0
22940.00,        0.0
22950.00,        0.0
22960.00,        0.0
22970.00,        0.0
22980.00,        0.0
22990.00,        0.0
23000.00,        0.0
23010.00,        0.0
23020.00,        0.0
23030.00,        0.0
23040.00,        0.0
23050.00,        0.0
23060.00,        0.0
23070.00,        0.0
23080.00,        0.0
23090.00,        0.0
23100.00,        1.0
23110.00,        0.0
23120.00,        0.0
23130.00,        0.0
23140.00,        0.0
23150.00,        0.0
23160.00,        0.0
23170.00,        0.0
23180.00,        0.0
23190.00,        0.0
23200.00,        0.0
23210.00,        0.0
23220.00,        0.0
23230.00,        0.0
23240.00,        0.0
23250.00,        0.0
23260.00,        0.0
23270.00,        0.0
23280.00,        0.0
23290.00,        0.0
23300.00,        0.0
23310.00,        0.0
23320.00,        0.0
23330.00,        0.0
23340.00,        0.0
23350.00,        0.0
23360.00,        0.0
23370.00,        0.0
23380.00,        0.0
23390.00,        0.0
23400.00,        0.0
23410.00,        0.0
23420.00,        0.0
23430.00,        0.0
23440.00,        0.0
23450.00,        0.0
23460.00,        0.0
23470.00,        0.0
23480.00,        0.0
23490.00,        0.0
23500.00,        0.0
23510.00,        0.0
23520.00,        0.0
23530.00,        0.0
23540.00,        0.0
23550.00,        0.0
23560.00,        0.0
23570.00,        0.0
23580.00,        0.0
23590.00,        0.0
23600.00,        0.0
23610.00,        0.0
23620.00,        0.0
23630.00,        0.0
23640.00,        0.0
23650.00,        0.0
23660.00,        0.0
23670.00,        0.0
23680.00,        1.0
23690.00,        0.0
23700.00,        0.0
23710.00,        0.0
23720.00,        0.0
23730.00,        0.0
23740.00,        0.0
23750.00,        0.0
23760.00,        0.0
23770.00,        0.0
23780.00,        0.0
23790.00,        0.0
23800.00,        0.0
23810.00,        0.0
23820.00,        0.0
23830.00,        0.0
23840.00,        0.0
23850.00,        0.0
23860.00,        0.0
23870.00,        0.0
23880.00,        0.0
23890.00,        0.0
23900.00,        0.0
23910.00,        0.0
23920.00,        0.0
23930.00,        0.0
23940.00,        0.0
23950.00,        0.0
23960.00,        0.0
23970.00,        0.0
23980.00,        0.0
23990.00,        0.0
24000.00,        0.0
24010.00,        0.0
24020.00,        0.0
24030.00,        0.0
24040.00,        0.0
24050.00,        0.0
24060.00,        0.0
24070.00,        0.0
24080.00,        0.0
24090.00,        0.0
24100.00,        0.0
24110.00,        0.0
24120.00,        0.0
24130.00,        0.0
24140.00,        0.0
24150.00,        0.0
24160.00,        0.0
24170.00,        0.0
24180.00,        0.0
24190.00,        0.0
24200.00,        0.0
24210.00,        0.0
24220.00,        0.0
24230.00,        0.0
24240.00,        0.0
24250.00,        0.0
24260.00,        0.0
24270.00,        1.0
24280.00,        0.0
24290.00,        0.0
24300.00,        0.0
24310.00,        0.0
24320.00,        0.0
24330.00,        0.0
24340.00,        0.0
24350.00,        0.0
24360.00,        0.0
24370.00,        0.0
24380.00,        0.0
24390.00,        0.0
24400.00,        0.0
24410.00,        0.0
24420.00,        0.0
24430.00,        0.0
24440.00,        0.0
24450.00,        0.0
24460.00,        0.0
24470.00,        0.0
24480.00,        0.0
24490.00,        0.0
24500.00,        0.0
24510.00,        0.0
24520.00,        0.0
24530.00,        0.0
24540.00,        0.0
24550.00,        0.0
24560.00,        0.0
24570.00,        0.0
24580.00,        0.0
24590.00,        0.0
24600.00,        0.0
24610.00,        0.0
24620.00,        0.0
24630.00,        0.0
24640.00,        0.0
24650.00,        0.0
24660.00,        0.0
24670.00,        0.0
24680.00,        0.0
24690.00,        0.0
24700.00,        0.0
24710.00,        0.0
24720.00,        0.0
24730.00,        0.0
24740.00,        0.0
24750.00,        0.0
24760.00,        0.0
24770.00,        0.0
24780.00,        0.0
24790.00,        0.0
24800.00,        0.0
24810.00,        0.0
24820.00,        0.0
24830.00,        0.0
24840.00,        0.0
24850.00,        0.0
24860.00,        0.0
24870.00,        0.0
24880.00,        0.0
24890.00,        0.0
24900.00,        0.0
24910.00,        0.0
24920.00,        0.0
24930.00,        0.0
24940.00,        0.0
24950.00,        0.0
24960.00,        0.0
24970.00,        0.0
24980.00,        0.0
24990.00,        0.0
25000.00,        0.0
25010.00,        0.0
25020.00,        0.0
25030.00,        0.0
25040.00,        0.0
25050.00,        0.0
25060.00,        0.0
25070.00,        0.0
25080.00,        0.0
25090.00,        0.0
25100.00,        0.0
25110.00,        0.0
25120.00,        0.0
25130.00,        0.0
25140.00,        0.0
25150.00,        0.0
25160.00,        0.0
25170.00,        0.0
25180.00,        0.0
25190.00,        0.0
25200.00,        0.0
25210.00,        0.0
25220.00,        0.0
25230.00,        0.0
25240.00,        0.0
25250.00,        0.0
25260.00,        0.0
25270.00,        0.0
25280.00,        0.0
25290.00,        0.0
25300.00,        0.0
25310.00,        0.0
25320.00,        0.0
25330.00,        0.0
25340.00,        0.0
25350.00,        0.0
25360.00,        0.0
25370.00,        0.0
25380.00,        0.0
25390.00,        0.0
25400.00,        0.0
25410.00,        0.0
25420.00,        0.0
25430.00,        0.0
25440.00,        0.0
25450.00,        0.0
25460.00,        0.0
25470.00,        0.0
25480.00,        0.0
25490.00,        0.0
25500.00,        0.0
25510.00,        0.0
25520.00,        0.0
25530.00,        0.0
25540.00,        0.0
25550.00,        0.0
25560.00,        0.0
25570.00,        0.0
25580.00,        0.0
25590.00,        0.0
25600.00,        0.0
25610.00,        0.0
25620.00,        0.0
25630.00,        0.0
25640.00,        0.0
25650.00,        0.0
25660.00,        0.0
25670.00,        0.0
25680.00,        0.0
25690.00,        0.0
25700.00,        0.0
25710.00,        0.0
25720.00,        0.0
25730.00,        0.0
25740.00,        0.0
25750.00,        0.0
25760.00,        0.0
25770.00,        0.0
25780.00,        0.0
25790.00,        0.0
25800.00,        0.0
25810.00,        0.0
25820.00,        0.0
25830.00,        0.0
25840.00,        0.0
25850.00,        0.0
25860.00,        0.0
25870.00,        0.0
25880.00,        0.0
25890.00,        0.0
25900.00,        0.0
25910.00,        0.0
25920.00,        0.0
25930.00,        0.0
25940.00,        0.0
25950.00,        0.0
25960.00,        0.0
25970.00,        0.0
25980.00,        0.0
25990.00,        0.0
26000.00,        0.0
26010.00,        0.0
26020.00,        0.0
26030.00,        0.0
26040.00,        0.0
26050.00,        0.0
26060.00,        0.0
26070.00,        0.0
26080.00,        0.0
26090.00,        0.0
26100.00,        0.0
26110.00,        0.0
26120.00,        0.0
26130.00,        0.0
26140.00,        0.0
26150.00,        0.0
26160.00,        0.0
26170.00,        0.0
26180.00,        0.0
26190.00,        0.0
26200.00,        0.0
26210.00,        0.0
26220.00,        0.0
26230.00,        0.0
26240.00,        0.0
26250.00,        0.0
26260.00,        0.0
26270.00,        0.0
26280.00,        0.0
26290.00,        0.0
26300.00,        0.0
26310.00,        0.0
26320.00,        0.0
26330.00,        0.0
26340.00,        0.0
26350.00,        0.0
26360.00,        0.0
26370.00,        0.0
26380.00,        0.0
26390.00,        0.0
26400.00,        0.0
26410.00,        0.0
26420.00,        0.0
26430.00,        0.0
26440.00,        0.0
26450.00,        0.0
26460.00,        0.0
26470.00,        0.0
26480.00,        0.0
26490.00,        0.0
26500.00,        0.0
26510.00,        0.0
26520.00,        0.0
26530.00,        0.0
26540.00,        0.0
26550.00,        0.0
26560.00,        0.0
26570.00,        0.0
26580.00,        0.0
26590.00,        0.0
26600.00,        0.0
26610.00,        0.0
26620.00,        0.0
26630.00,        0.0
26640.00,        0.0
26650.00,        0.0
26660.00,        0.0
26670.00,        0.0
26680.00,        0.0
26690.00,        0.0
26700.00,        0.0
26710.00,        0.0
26720.00,        0.0
26730.00,        0.0
26740.00,        0.0
26750.00,        0.0
26760.00,        0.0
26770.00,        0.0
26780.00,        0.0
26790.00,        0.0
26800.00,        0.0
26810.00,        0.0
26820.00,        0.0
26830.00,        0.0
26840.00,        0.0
26850.00,        0.0
26860.00,        0.0
26870.00,        0.0
26880.00,        0.0
26890.00,        0.0
26900.00,        0.0
26910.00,        0.0
26920.00,        0.0
26930.00,        0.0
26940.00,        0.0
26950.00,        0.0
26960.00,        0.0
26970.00,        0.0
26980.00,        0.0
26990.00,        0.0
27000.00,        0.0
27010.00,        0.0
27020.00,        0.0
27030.00,        0.0
27040.00,        0.0
27050.00,        0.0
27060.00,        0.0
27070.00,        0.0
27080.00,        0.0
27090.00,        0.0
27100.00,        0.0
27110.00,        0.0
27120.00,        0.0
27130.00,        0.0
27140.00,        0.0
27150.00,        0.0
27160.00,        0.0
27170.00,        0.0
27180.00,        0.0
27190.00,        0.0
27200.00,        0.0
27210.00,        0.0
27220.00,        0.0
27230.00,        0.0
27240.00,        0.0
27250.00,        0.0
27260.00,        0.0
27270.00,        0.0
27280.00,        0.0
27290.00,        0.0
27300.00,        0.0
27310.00,        0.0
27320.00,        0.0
27330.00,        0.0
27340.00,        0.0
27350.00,        0.0
27360.00,        0.0
27370.00,        0.0
27380.00,        0.0
27390.00,        0.0
27400.00,        0.0
27410.00,        0.0
27420.00,        0.0
27430.00,        0.0
27440.00,        0.0
27450.00,        0.0
27460.00,        0.0
27470.00,        0.0
27480.00,        0.0
27490.00,        0.0
27500.00,        0.0
27510.00,        0.0
27520.00,        0.0
27530.00,        0.0
27540.00,        0.0
27550.00,        0.0
27560.00,        0.0
27570.00,        0.0
27580.00,        0.0
27590.00,        0.0
27600.00,        0.0
27610.00,        0.0
27620.00,        0.0
27630.00,        0.0
27640.00,        0.0
27650.00,        0.0
27660.00,        0.0
27670.00,        0.0
27680.00,        0.0
27690.00,        0.0
27700.00,        0.0
27710.00,        0.0
27720.00,        0.0
27730.00,        0.0
27740.00,        0.0
27750.00,        0.0
27760.00,        0.0
27770.00,        0.0
27780.00,        0.0
27790.00,        0.0
27800.00,        0.0
27810.00,        0.0
27820.00,        0.0
27830.00,        0.0
27840.00,        0.0
27850.00,        0.0
27860.00,        0.0
27870.00,        0.0
27880.00,        0.0
27890.00,        0.0
27900.00,        0.0
27910.00,        0.0
27920.00,        0.0
27930.00,        0.0
27940.00,        0.0
27950.00,        0.0
27960.00,        0.0
27970.00,        0.0
27980.00,        0.0
27990.00,        0.0
28000.00,        0.0
28010.00,        0.0
28020.00,        0.0
28030.00,        0.0
28040.00,        0.0
28050.00,        0.0
28060.00,        0.0
28070.00,        0.0
28080.00,        0.0
28090.00,        0.0
28100.00,        0.0
28110.00,        0.0
28120.00,        0.0
28130.00,        0.0
28140.00,        0.0
28150.00,        0.0
28160.00,        0.0
28170.00,        0.0
28180.00,        0.0
28190.00,        0.0
28200.00,        0.0
28210.00,        0.0
28220.00,        0.0
28230.00,        0.0
28240.00,        0.0
28250.00,        0.0
28260.00,        0.0
28270.00,        0.0
28280.00,        0.0
28290.00,        0.0
28300.00,        0.0
28310.00,        0.0
28320.00,        0.0
28330.00,        0.0
28340.00,        0.0
28350.00,        0.0
28360.00,        0.0
28370.00,        0.0
28380.00,        0.0
28390.00,        0.0
28400.00,        0.0
28410.00,        0.0
28420.00,        0.0
28430.00,        0.0
28440.00,        0.0
28450.00,        0.0
28460.00,        0.0
28470.00,        0.0
28480.00,        0.0
28490.00,        0.0
28500.00,        0.0
28510.00,        0.0
28520.00,        0.0
28530.00,        0.0
28540.00,        0.0
28550.00,        0.0
28560.00,        0.0
28570.00,        0.0
28580.00,        0.0
28590.00,        0.0
28600.00,        0.0
28610.00,        0.0
28620.00,        0.0
28630.00,        0.0
28640.00,        0.0
28650.00,        0.0
28660.00,        0.0
28670.00,        0.0
28680.00,        0.0
28690.00,        0.0
28700.00,        0.0
28710.00,        0.0
28720.00,        0.0
28730.00,        0.0
28740.00,        0.0
28750.00,        0.0
28760.00,        0.0
28770.00,        0.0
28780.00,        0.0
28790.00,        0.0
28800.00,        0.0
28810.00,        0.0
28820.00,        0.0
28830.00,        0.0
28840.00,        0.0
28850.00,        0.0
28860.00,        0.0
28870.00,        0.0
28880.00,        0.0
28890.00,        0.0
28900.00,        0.0
28910.00,        0.0
28920.00,        0.0
28930.00,        0.0
28940.00,        0.0
28950.00,        0.0
28960.00,        0.0
28970.00,        0.0
28980.00,        0.0
28990.00,        0.0
29000.00,        0.0
29010.00,        0.0
29020.00,        0.0
29030.00,        0.0
29040.00,        0.0
29050.00,        0.0
29060.00,        0.0
29070.00,        0.0
29080.00,        0.0
29090.00,        0.0
29100.00,        0.0
29110.00,        0.0
29120.00,        0.0
29130.00,        0.0
29140.00,        0.0
29150.00,        0.0
29160.00,        0.0
29170.00,        0.0
29180.00,        0.0
29190.00,        0.0
29200.00,        0.0
29210.00,        0.0
29220.00,        0.0
29230.00,        0.0
29240.00,        0.0
29250.00,        0.0
29260.00,        0.0
29270.00,        0.0
29280.00,        0.0
29290.00,        0.0
29300.00,        0.0
29310.00,        0.0
29320.00,        0.0
29330.00,        0.0
29340.00,        0.0
29350.00,        0.0
29360.00,        0.0
29370.00,        0.0
29380.00,        0.0
29390.00,        0.0
29400.00,        0.0
29410.00,        0.0
29420.00,        0.0
29430.00,        0.0
29440.00,        0.0
29450.00,        0.0
29460.00,        0.0
29470.00,        0.0
29480.00,        0.0
29490.00,        0.0
29500.00,        0.0
29510.00,        0.0
29520.00,        0.0
29530.00,        0.0
29540.00,        0.0
29550.00,        0.0
29560.00,        0.0
29570.00,        0.0
29580.00,        0.0
29590.00,        0.0
29600.00,        0.0
29610.00,        0.0
29620.00,        0.0
29630.00,        0.0
29640.00,        0.0
29650.00,        0.0
29660.00,        0.0
29670.00,        0.0
29680.00,        0.0
29690.00,        0.0
29700.00,        0.0
29710.00,        0.0
29720.00,        0.0
29730.00,        0.0
29740.00,        0.0
29750.00,        0.0
29760.00,        0.0
29770.00,        0.0
29780.00,        0.0
29790.00,        0.0
29800.00,        0.0
29810.00,        0.0
29820.00,        0.0
29830.00,        0.0
29840.00,        0.0
29850.00,        0.0
29860.00,        0.0
29870.00,        0.0
29880.00,        0.0
29890.00,        0.0
29900.00,        0.0
29910.00,        0.0
29920.00,        0.0
29930.00,        0.0
29940.00,        0.0
29950.00,        0.0
29960.00,        0.0
29970.00,        0.0
29980.00,        0.0
29990.00,        0.0
30000.00,        0.0
30010.00,        0.0
30020.00,        0.0
30030.00,        0.0
30040.00,        0.0
30050.00,        0.0
30060.00,        0.0
30070.00,        0.0
30080.00,        0.0
30090.00,        0.0
30100.00,        0.0
30110.00,        0.0
30120.00,        0.0
30130.00,        0.0
30140.00,        0.0
30150.00,        0.0
30160.00,        0.0
30170.00,        0.0
30180.00,        0.0
30190.00,        0.0
30200.00,        0.0
30210.00,        0.0
30220.00,        0.0
30230.00,        0.0
30240.00,        0.0
30250.00,        0.0
30260.00,        0.0
30270.00,        0.0
30280.00,        0.0
30290.00,        0.0
30300.00,        0.0
30310.00,        0.0
30320.00,        0.0
30330.00,        0.0
30340.00,        0.0
30350.00,        0.0
30360.00,        0.0
30370.00,        0.0
30380.00,        0.0
30390.00,        0.0
30400.00,        0.0
30410.00,        0.0
30420.00,        0.0
30430.00,        0.0
30440.00,        0.0
30450.00,        0.0
30460.00,        0.0
30470.00,        0.0
30480.00,        0.0
30490.00,        0.0
30500.00,        0.0
30510.00,        0.0
30520.00,        0.0
30530.00,        0.0
30540.00,        0.0
30550.00,        0.0
30560.00,        0.0
30570.00,        0.0
30580.00,        0.0
30590.00,        0.0
30600.00,        0.0
30610.00,        0.0
30620.00,        0.0
30630.00,        0.0
30640.00,        0.0
30650.00,        0.0
30660.00,        0.0
30670.00,        0.0
30680.00,        0.0
30690.00,        0.0
30700.00,        0.0
30710.00,        0.0
30720.00,        0.0
30730.00,        0.0
30740.00,        0.0
30750.00,        0.0
30760.00,        0.0
30770.00,        0.0
30780.00,        0.0
30790.00,        0.0
30800.00,        0.0
30810.00,        0.0
30820.00,        0.0
30830.00,        0.0
30840.00,        0.0
30850.00,        0.0
30860.00,        0.0
30870.00,        0.0
30880.00,        0.0
30890.00,        0.0
30900.00,        0.0
30910.00,        0.0
30920.00,        0.0
30930.00,        0.0
30940.00,        0.0
30950.00,        0.0
30960.00,        0.0
30970.00,        0.0
30980.00,        0.0
30990.00,        0.0
31000.00,        0.0
31010.00,        0.0
31020.00,        0.0
31030.00,        0.0
31040.00,        0.0
31050.00,        0.0
31060.00,        0.0
31070.00,        0.0
31080.00,        0.0
31090.00,        0.0
31100.00,        0.0
31110.00,        0.0
31120.00,        0.0
31130.00,        0.0
31140.00,        0.0
31150.00,        0.0
31160.00,        0.0
31170.00,        0.0
31180.00,        0.0
31190.00,        0.0
31200.00,        0.0
31210.00,        0.0
31220.00,        0.0
31230.00,        0.0
31240.00,        0.0
31250.00,        0.0
31260.00,        0.0
31270.00,        0.0
31280.00,        0.0
31290.00,        0.0
31300.00,        0.0
31310.00,        0.0
31320.00,        0.0
31330.00,        0.0
31340.00,        0.0
31350.00,        0.0
31360.00,        0.0
31370.00,        0.0
31380.00,        0.0
31390.00,        0.0
31400.00,        0.0
31410.00,        0.0
31420.00,        0.0
31430.00,        0.0
31440.00,        0.0
31450.00,        0.0
31460.00,        0.0
31470.00,        0.0
31480.00,        0.0
31490.00,        0.0
31500.00,        0.0
31510.00,        0.0
31520.00,        0.0
31530.00,        0.0
31540.00,        0.0
31550.00,        0.0
31560.00,        0.0
31570.00,        0.0
31580.00,        0.0
31590.00,        0.0
31600.00,        0.0
31610.00,        0.0
31620.00,        0.0
31630.00,        0.0
31640.00,        0.0
31650.00,        0.0
31660.00,        0.0
31670.00,        0.0
31680.00,        0.0
31690.00,        0.0
31700.00,        0.0
31710.00,        0.0
31720.00,        0.0
31730.00,        0.0
31740.00,        0.0
31750.00,        0.0
31760.00,        0.0
31770.00,        0.0
31780.00,        0.0
31790.00,        0.0
31800.00,        0.0
31810.00,        0.0
31820.00,        0.0
31830.00,        0.0
31840.00,        0.0
31850.00,        0.0
31860.00,        0.0
31870.00,        0.0
31880.00,        0.0
31890.00,        0.0
31900.00,        0.0
31910.00,        0.0
31920.00,        0.0
31930.00,        0.0
31940.00,        0.0
31950.00,        0.0
31960.00,        0.0
31970.00,        0.0
31980.00,        0.0
31990.00,        0.0
32000.00,        0.0
32010.00,        0.0
32020.00,        0.0
32030.00,        0.0
32040.00,        0.0
32050.00,        0.0
32060.00,        0.0
32070.00,        0.0
32080.00,        0.0
32090.00,        0.0
32100.00,        0.0
32110.00,        0.0
32120.00,        0.0
32130.00,        0.0
32140.00,        0.0
32150.00,        0.0
32160.00,        0.0
32170.00,        0.0
32180.00,        0.0
32190.00,        0.0
32200.00,        0.0
32210.00,        0.0
32220.00,        0.0
32230.00,        0.0
32240.00,        0.0
32250.00,        0.0
32260.00,        0.0
32270.00,        0.0
32280.00,        0.0
32290.00,        0.0
32300.00,        0.0
32310.00,        0.0
32320.00,        0.0
32330.00,        0.0
32340.00,        0.0
32350.00,        0.0
32360.00,        0.0
32370.00,        0.0
32380.00,        0.0
32390.00,        0.0
32400.00,        0.0
32410.00,        0.0
32420.00,        0.0
32430.00,        0.0
32440.00,        0.0
32450.00,        0.0
32460.00,        0.0
32470.00,        0.0
32480.00,        0.0
32490.00,        0.0
32500.00,        0.0
32510.00,        0.0
32520.00,        0.0
32530.00,        0.0
32540.00,        0.0
32550.00,        0.0
32560.00,        0.0
32570.00,        0.0
32580.00,        0.0
32590.00,        0.0
32600.00,        0.0
32610.00,        0.0
32620.00,        0.0
32630.00,        0.0
32640.00,        0.0
32650.00,        0.0
32660.00,        0.0
32670.00,        0.0
32680.00,        0.0
32690.00,        0.0
32700.00,        0.0
32710.00,        0.0
32720.00,        0.0
32730.00,        0.0
32740.00,        0.0
32750.00,        0.0
32760.00,        0.0
32770.00,        0.0
32780.00,        0.0
32790.00,        0.0
32800.00,        0.0
32810.00,        0.0
32820.00,        0.0
32830.00,        0.0
32840.00,        0.0
32850.00,        0.0
32860.00,        0.0
32870.00,        0.0
32880.00,        0.0
32890.00,        0.0
32900.00,        0.0
32910.00,        0.0
32920.00,        0.0
32930.00,        0.0
32940.00,        0.0
32950.00,        0.0
32960.00,        0.0
32970.00,        0.0
32980.00,        0.0
32990.00,        0.0
33000.00,        0.0
33010.00,        0.0
33020.00,        0.0
33030.00,        0.0
33040.00,        0.0
33050.00,        0.0
33060.00,        0.0
33070.00,        0.0
33080.00,        0.0
33090.00,        0.0
33100.00,        0.0
33110.00,        0.0
33120.00,        0.0
33130.00,        0.0
33140.00,        0.0
33150.00,        0.0
33160.00,        0.0
33170.00,        0.0
33180.00,        0.0
33190.00,        0.0
33200.00,        0.0
33210.00,        0.0
33220.00,        0.0
33230.00,        0.0
33240.00,        0.0
33250.00,        0.0
33260.00,        0.0
33270.00,        0.0
33280.00,        0.0
33290.00,        0.0
33300.00,        0.0
33310.00,        0.0
33320.00,        0.0
33330.00,        0.0
33340.00,        0.0
33350.00,        0.0
33360.00,        0.0
33370.00,        0.0
33380.00,        0.0
33390.00,        0.0
33400.00,        0.0
33410.00,        0.0
33420.00,        0.0
33430.00,        0.0
33440.00,        0.0
33450.00,        0.0
33460.00,        0.0
33470.00,        0.0
33480.00,        0.0
33490.00,        0.0
33500.00,        0.0
33510.00,        0.0
33520.00,        0.0
33530.00,        0.0
33540.00,        0.0
33550.00,        0.0
33560.00,        0.0
33570.00,        0.0
33580.00,        0.0
33590.00,        0.0
33600.00,        0.0
33610.00,        0.0
33620.00,        0.0
33630.00,        0.0
33640.00,        0.0
33650.00,        0.0
33660.00,        0.0
33670.00,        0.0
33680.00,        0.0
33690.00,        0.0
33700.00,        0.0
33710.00,        0.0
33720.00,        0.0
33730.00,        0.0
33740.00,        0.0
33750.00,        0.0
33760.00,        0.0
33770.00,        0.0
33780.00,        0.0
33790.00,        0.0
33800.00,        0.0
33810.00,        0.0
33820.00,        0.0
33830.00,        0.0
33840.00,        0.0
33850.00,        0.0
33860.00,        0.0
33870.00,        0.0
33880.00,        0.0
33890.00,        0.0
33900.00,        0.0
33910.00,        0.0
33920.00,        0.0
33930.00,        0.0
33940.00,        0.0
33950.00,        0.0
33960.00,        0.0
33970.00,        0.0
33980.00,        0.0
33990.00,        0.0
34000.00,        0.0
34010.00,        0.0
34020.00,        0.0
34030.00,        0.0
34040.00,        0.0
34050.00,        0.0
34060.00,        0.0
34070.00,        0.0
34080.00,        0.0
34090.00,        0.0
34100.00,        0.0
34110.00,        0.0
34120.00,        0.0
34130.00,        0.0
34140.00,        0.0
34150.00,        0.0
34160.00,        0.0
34170.00,        0.0
34180.00,        0.0
34190.00,        0.0
34200.00,        0.0
34210.00,        0.0
34220.00,        0.0
34230.00,        0.0
34240.00,        0.0
34250.00,        0.0
34260.00,        0.0
34270.00,        0.0
34280.00,        0.0
34290.00,        0.0
34300.00,        0.0
34310.00,        0.0
34320.00,        0.0
34330.00,        0.0
34340.00,        0.0
34350.00,        0.0
34360.00,        0.0
34370.00,        0.0
34380.00,        0.0
34390.00,        0.0
34400.00,        0.0
34410.00,        0.0
34420.00,        0.0
34430.00,        0.0
34440.00,        0.0
34450.00,        0.0
34460.00,        0.0
34470.00,        0.0
34480.00,        0.0
34490.00,        0.0
34500.00,        0.0
34510.00,        0.0
34520.00,        0.0
34530.00,        0.0
34540.00,        0.0
34550.00,        0.0
34560.00,        0.0
34570.00,        0.0
34580.00,        0.0
34590.00,        0.0
34600.00,        0.0
34610.00,        0.0
34620.00,        0.0
34630.00,        0.0
34640.00,        0.0
34650.00,        0.0
34660.00,        0.0
34670.00,        0.0
34680.00,        0.0
34690.00,        0.0
34700.00,        0.0
34710.00,        0.0
34720.00,        0.0
34730.00,        0.0
34740.00,        0.0
34750.00,        0.0
34760.00,        0.0
34770.00,        0.0
34780.00,        0.0
34790.00,        0.0
34800.00,        0.0
34810.00,        0.0
34820.00,        0.0
34830.00,        0.0
34840.00,        0.0
34850.00,        0.0
34860.00,        0.0
34870.00,        0.0
34880.00,        0.0
34890.00,        0.0
34900.00,        0.0
34910.00,        0.0
34920.00,        0.0
34930.00,        0.0
34940.00,        0.0
34950.00,        0.0
34960.00,        0.0
34970.00,        0.0
34980.00,        0.0
34990.00,        0.0
35000.00,        0.0
35010.00,        0.0
35020.00,        0.0
35030.00,        0.0
35040.00,        0.0
35050.00,        0.0
35060.00,        0.0
35070.00,        0.0
35080.00,        0.0
35090.00,        0.0
35100.00,        0.0
35110.00,        0.0
35120.00,        0.0
35130.00,        0.0
35140.00,        0.0
35150.00,        0.0
35160.00,        0.0
35170.00,        0.0
35180.00,        0.0
35190.00,        0.0
35200.00,        0.0
35210.00,        0.0
35220.00,        0.0
35230.00,        0.0
35240.00,        0.0
35250.00,        0.0
35260.00,        0.0
35270.00,        0.0
35280.00,        0.0
35290.00,        0.0
35300.00,        0.0
35310.00,        0.0
35320.00,        0.0
35330.00,        0.0
35340.00,        0.0
35350.00,        0.0
35360.00,        0.0
35370.00,        0.0
35380.00,        0.0
35390.00,        0.0
35400.00,        0.0
35410.00,        0.0
35420.00,        0.0
35430.00,        0.0
35440.00,        0.0
35450.00,        0.0
35460.00,        0.0
35470.00,        0.0
35480.00,        0.0
35490.00,        0.0
35500.00,        0.0
35510.00,        0.0
35520.00,        0.0
35530.00,        0.0
35540.00,        0.0
35550.00,        0.0
35560.00,        0.0
35570.00,        0.0
35580.00,        0.0
35590.00,        0.0
35600.00,        0.0
35610.00,        0.0
35620.00,        0.0
35630.00,        0.0
35640.00,        0.0
35650.00,        0.0
35660.00,        0.0
35670.00,        0.0
35680.00,        0.0
35690.00,        0.0
35700.00,        0.0
35710.00,        0.0
35720.00,        0.0
35730.00,        0.0
35740.00,        0.0
35750.00,        0.0
35760.00,        0.0
35770.00,        0.0
35780.00,        0.0
35790.00,        0.0
35800.00,        0.0
35810.00,        0.0
35820.00,        0.0
35830.00,        0.0
35840.00,        0.0
35850.00,        0.0
35860.00,        0.0
35870.00,        0.0
35880.00,        0.0
35890.00,        0.0
35900.00,        0.0
35910.00,        0.0
35920.00,        0.0
35930.00,        0.0
35940.00,        0.0
35950.00,        0.0
35960.00,        0.0
35970.00,        0.0
35980.00,        0.0
35990.00,        0.0
36000.00,        0.0
36010.00,        0.0
36020.00,        0.0
36030.00,        0.0
36040.00,        0.0
36050.00,        0.0
36060.00,        0.0
36070.00,        0.0
36080.00,        0.0
36090.00,        0.0
36100.00,        0.0
36110.00,        0.0
36120.00,        0.0
36130.00,        0.0
36140.00,        0.0
36150.00,        0.0
36160.00,        0.0
36170.00,        0.0
36180.00,        0.0
36190.00,        0.0
36200.00,        0.0
36210.00,        0.0
36220.00,        0.0
36230.00,        0.0
36240.00,        0.0
36250.00,        0.0
36260.00,        0.0
36270.00,        0.0
36280.00,        0.0
36290.00,        0.0
36300.00,        0.0
36310.00,        0.0
36320.00,        0.0
36330.00,        0.0
36340.00,        0.0
36350.00,        0.0
36360.00,        0.0
36370.00,        0.0
36380.00,        0.0
36390.00,        0.0
36400.00,        0.0
36410.00,        0.0
36420.00,        0.0
36430.00,        0.0
36440.00,        0.0
36450.00,        0.0
36460.00,        0.0
36470.00,        0.0
36480.00,        0.0
36490.00,        0.0
36500.00,        0.0
36510.00,        0.0
36520.00,        0.0
36530.00,        0.0
36540.00,        0.0
36550.00,        0.0
36560.00,        0.0
36570.00,        0.0
36580.00,        0.0
36590.00,        0.0
36600.00,        0.0
36610.00,        0.0
36620.00,        0.0
36630.00,        0.0
36640.00,        0.0
36650.00,        0.0
36660.00,        0.0
36670.00,        0.0
36680.00,        0.0
36690.00,        0.0
36700.00,        0.0
36710.00,        0.0
36720.00,        0.0
36730.00,        0.0
36740.00,        0.0
36750.00,        0.0
36760.00,        0.0
36770.00,        0.0
36780.00,        0.0
36790.00,        0.0
36800.00,        0.0
36810.00,        0.0
36820.00,        0.0
36830.00,        0.0
36840.00,        0.0
36850.00,        0.0
36860.00,        0.0
36870.00,        0.0
36880.00,        0.0
36890.00,        0.0
36900.00,        0.0
36910.00,        0.0
36920.00,        0.0
36930.00,        0.0
36940.00,        0.0
36950.00,        0.0
36960.00,        0.0
36970.00,        0.0
36980.00,        0.0
36990.00,        0.0
37000.00,        0.0
37010.00,        0.0
37020.00,        0.0
37030.00,        0.0
37040.00,        0.0
37050.00,        0.0
37060.00,        0.0
37070.00,        0.0
37080.00,        0.0
37090.00,        0.0
37100.00,        0.0
37110.00,        0.0
37120.00,        0.0
37130.00,        0.0
37140.00,        0.0
37150.00,        0.0
37160.00,        0.0
37170.00,        0.0
37180.00,        0.0
37190.00,        0.0
37200.00,        0.0
37210.00,        0.0
37220.00,        0.0
37230.00,        0.0
37240.00,        0.0
37250.00,        0.0
37260.00,        0.0
37270.00,        0.0
37280.00,        0.0
37290.00,        0.0
37300.00,        0.0
37310.00,        0.0
37320.00,        0.0
37330.00,        0.0
37340.00,        0.0
37350.00,        0.0
37360.00,        0.0
37370.00,        0.0
37380.00,        0.0
37390.00,        0.0
37400.00,        0.0
37410.00,        0.0
37420.00,        0.0
37430.00,        0.0
37440.00,        0.0
37450.00,        0.0
37460.00,        0.0
37470.00,        0.0
37480.00,        0.0
37490.00,        0.0
37500.00,        0.0
37510.00,        0.0
37520.00,        0.0
37530.00,        0.0
37540.00,        0.0
37550.00,        0.0
37560.00,        0.0
37570.00,        0.0
37580.00,        0.0
37590.00,        0.0
37600.00,        0.0
37610.00,        0.0
37620.00,        0.0
37630.00,        0.0
37640.00,        0.0
37650.00,        0.0
37660.00,        0.0
37670.00,        0.0
37680.00,        0.0
37690.00,        0.0
37700.00,        0.0
37710.00,        0.0
37720.00,        0.0
37730.00,        0.0
37740.00,        0.0
37750.00,        0.0
37760.00,        0.0
37770.00,        0.0
37780.00,        0.0
37790.00,        0.0
37800.00,        0.0
37810.00,        0.0
37820.00,        0.0
37830.00,        0.0
37840.00,        0.0
37850.00,        0.0
37860.00,        0.0
37870.00,        0.0
37880.00,        0.0
37890.00,        0.0
37900.00,        0.0
37910.00,        0.0
37920.00,        0.0
37930.00,        0.0
37940.00,        0.0
37950.00,        0.0
37960.00,        0.0
37970.00,        0.0
37980.00,        0.0
37990.00,        0.0
38000.00,        0.0
38010.00,        0.0
38020.00,        0.0
38030.00,        0.0
38040.00,        0.0
38050.00,        0.0
38060.00,        0.0
38070.00,        0.0
38080.00,        0.0
38090.00,        0.0
38100.00,        0.0
38110.00,        0.0
38120.00,        0.0
38130.00,        0.0
38140.00,        0.0
38150.00,        0.0
38160.00,        0.0
38170.00,        0.0
38180.00,        0.0
38190.00,        0.0
38200.00,        0.0
38210.00,        0.0
38220.00,        0.0
38230.00,        0.0
38240.00,        0.0
38250.00,        0.0
38260.00,        0.0
38270.00,        0.0
38280.00,        0.0
38290.00,        0.0
38300.00,        0.0
38310.00,        0.0
38320.00,        0.0
38330.00,        0.0
38340.00,        0.0
38350.00,        0.0
38360.00,        0.0
38370.00,        0.0
38380.00,        0.0
38390.00,        0.0
38400.00,        0.0
38410.00,        0.0
38420.00,        0.0
38430.00,        0.0
38440.00,        0.0
38450.00,        0.0
38460.00,        0.0
38470.00,        0.0
38480.00,        0.0
38490.00,        0.0
38500.00,        0.0
38510.00,        0.0
38520.00,        0.0
38530.00,        0.0
38540.00,        0.0
38550.00,        0.0
38560.00,        0.0
38570.00,        0.0
38580.00,        0.0
38590.00,        0.0
38600.00,        0.0
38610.00,        0.0
38620.00,        0.0
38630.00,        0.0
38640.00,        0.0
38650.00,        0.0
38660.00,        0.0
38670.00,        0.0
38680.00,        0.0
38690.00,        0.0
38700.00,        0.0
38710.00,        0.0
38720.00,        0.0
38730.00,        0.0
38740.00,        0.0
38750.00,        0.0
38760.00,        0.0
38770.00,        0.0
38780.00,        0.0
38790.00,        0.0
38800.00,        0.0
38810.00,        0.0
38820.00,        0.0
38830.00,        0.0
38840.00,        0.0
38850.00,        0.0
38860.00,        0.0
38870.00,        0.0
38880.00,        0.0
38890.00,        0.0
38900.00,        0.0
38910.00,        0.0
38920.00,        0.0
38930.00,        0.0
38940.00,        0.0
38950.00,        0.0
38960.00,        0.0
38970.00,        0.0
38980.00,        0.0
38990.00,        0.0
39000.00,        0.0
39010.00,        0.0
39020.00,        0.0
39030.00,        0.0
39040.00,        0.0
39050.00,        0.0
39060.00,        0.0
39070.00,        0.0
39080.00,        0.0
39090.00,        0.0
39100.00,        0.0
39110.00,        0.0
39120.00,        0.0
39130.00,        0.0
39140.00,        0.0
39150.00,        0.0
39160.00,        0.0
39170.00,        0.0
39180.00,        0.0
39190.00,        0.0
39200.00,        0.0
39210.00,        0.0
39220.00,        0.0
39230.00,        0.0
39240.00,        0.0
39250.00,        0.0
39260.00,        0.0
39270.00,        0.0
39280.00,        0.0
39290.00,        0.0
39300.00,        0.0
39310.00,        0.0
39320.00,        0.0
39330.00,        0.0
39340.00,        0.0
39350.00,        0.0
39360.00,        0.0
39370.00,        0.0
39380.00,        0.0
39390.00,        0.0
39400.00,        0.0
39410.00,        0.0
39420.00,        0.0
39430.00,        0.0
39440.00,        0.0
39450.00,        0.0
39460.00,        0.0
39470.00,        0.0
39480.00,        0.0
39490.00,        0.0
39500.00,        0.0
39510.00,        0.0
39520.00,        0.0
39530.00,        0.0
39540.00,        0.0
39550.00,        0.0
39560.00,        0.0
39570.00,        0.0
39580.00,        0.0
39590.00,        0.0
39600.00,        0.0
39610.00,        0.0
39620.00,        0.0
39630.00,        0.0
39640.00,        0.0
39650.00,        0.0
39660.00,        0.0
39670.00,        0.0
39680.00,        0.0
39690.00,        0.0
39700.00,        0.0
39710.00,        0.0
39720.00,        0.0
39730.00,        0.0
39740.00,        0.0
39750.00,        0.0
39760.00,        0.0
39770.00,        0.0
39780.00,        0.0
39790.00,        0.0
39800.00,        0.0
39810.00,        0.0
39820.00,        0.0
39830.00,        0.0
39840.00,        0.0
39850.00,        0.0
39860.00,        0.0
39870.00,        0.0
39880.00,        0.0
39890.00,        0.0
39900.00,        0.0
39910.00,        0.0
39920.00,        0.0
39930.00,        0.0
39940.00,        0.0
39950.00,        0.0
39960.00,        0.0
39970.00,        0.0
39980.00,        0.0
39990.00,        0.0
40000.00,        0.0
40010.00,        0.0
40020.00,        0.0
40030.00,        0.0
40040.00,        0.0
40050.00,        0.0
40060.00,        0.0
40070.00,        0.0
40080.00,        0.0
40090.00,        0.0
40100.00,        0.0
40110.00,        0.0
40120.00,        0.0
40130.00,        0.0
40140.00,        0.0
40150.00,        0.0
40160.00,        0.0
40170.00,        0.0
40180.00,        0.0
40190.00,        0.0
40200.00,        0.0
40210.00,        0.0
40220.00,        0.0
40230.00,        0.0
40240.00,        0.0
40250.00,        0.0
40260.00,        0.0
40270.00,        0.0
40280.00,        0.0
40290.00,        0.0
40300.00,        0.0
40310.00,        0.0
40320.00,        0.0
40330.00,        0.0
40340.00,        0.0
40350.00,        0.0
40360.00,        0.0
40370.00,        0.0
40380.00,        0.0
40390.00,        0.0
40400.00,        0.0
40410.00,        0.0
40420.00,        0.0
40430.00,        0.0
40440.00,        0.0
40450.00,        0.0
40460.00,        0.0
40470.00,        0.0
40480.00,        0.0
40490.00,        0.0
40500.00,        0.0
40510.00,        0.0
40520.00,        0.0
40530.00,        0.0
40540.00,        0.0
40550.00,        0.0
40560.00,        0.0
40570.00,        0.0
40580.00,        0.0
40590.00,        0.0
40600.00,        0.0
40610.00,        0.0
40620.00,        0.0
40630.00,        0.0
40640.00,        0.0
40650.00,        0.0
40660.00,        0.0
40670.00,        0.0
40680.00,        0.0
40690.00,        0.0
40700.00,        0.0
40710.00,        0.0
40720.00,        0.0
40730.00,        0.0
40740.00,        0.0
40750.00,        0.0
40760.00,        0.0
40770.00,        0.0
40780.00,        0.0
40790.00,        0.0
40800.00,        0.0
40810.00,        0.0
40820.00,        0.0
40830.00,        0.0
40840.00,        0.0
40850.00,        0.0
40860.00,        0.0
40870.00,        0.0
40880.00,        0.0
40890.00,        0.0
40900.00,        0.0
40910.00,        0.0
40920.00,        0.0
40930.00,        0.0
40940.00,        0.0
40950.00,        0.0
#ENDOFDATA   :